HEADER
Header Length,87
Export file version,2.0


Export settings:
Normalise,Yes
For TPS,No
Smoothing level,None

Units:
length,[cm]
amperage,[pA]

Project:
Project,Pinpoint 3D MR Safe
Project run number,2
Project run note,

Irradiation unit:
Name,VCU MRIdian
Manufacturer,ViewRay
Model,MRIdian
Source-isocentre distance,90,[cm]

Thales:
Control unit UID,00-3B-00-43-4B-56-50-11-20-37-30-53
Electrometer UID,00-4E-00-36-58-4B-50-0D-20-34-34-41
Water phantom UID,4A-B3-52-04-00-00-00-0A

Field detector:
Serial number,200613
Manufacturer,PTW
Model,Pinpoint 3D MR Safe
Bias voltage,300,[V]

Reference detector:
Serial number,XMC213192
Manufacturer,Standard Imaging
Model,A28MR Ref
Bias voltage,-300,[V]

Zeroing offsets:
Field detector,-0.83,[pA]
Reference detector,-0.908,[pA]

Profile settings:
Measurement mode,Continuous
Creation time,2023-01-08T19:39:43.2848586-05:00
SSD,85,[cm]
Gantry angle,0,[°]
Field size crossline,24.07,[cm]
Field size inline,24.07,[cm]
Beam quality,6,[MV]
Flattening Filter,FFF
Time to wait prior to sampling,0,[s]

Profile:
Profile type,Inline
Profile status,Completed successfully
Start X,0,[cm]
Start Y,-14,[cm]
Start Z,-5,[cm]
Stop X,0,[cm]
Stop Y,14,[cm]
Stop Z,-5,[cm]
Couch tilt x,0.06,[°]
Couch tilt y,0.00,[°]

Region count,1

Region 1 Start,0,[µm]
Region 1 Stop,280000,[µm]
Step size,1000,[µm]
Speed,1050,[µm/s]
Integration time,953,[ms]

Analysis result:
Analysis method,Max value
Calculated centre,0.020272,[cm]
Calculated field width,23.829130,[cm]
Calculated penumbra left,5.012333,[cm]
Calculated penumbra right,5.577729,[cm]
Calculated symmetry,2.218,[%]
Normalisation factor,0.472823,


MEASUREMENT DATA

X [cm],Y [cm],Z [cm],Normalised dose [%],
-0.0021,-13.9498,-5.0072,-6.059,
-0.0012,-13.8495,-5.0143,-6.251,
0,-13.7497,-5.0142,-6.422,
0.0013,-13.65,-5.0141,-6.564,
0.0052,-13.55,-5.014,-6.690,
0.0083,-13.45,-5.0139,-6.961,
0.0082,-13.35,-5.0139,-7.149,
0.0079,-13.25,-5.0138,-7.440,
0.0076,-13.15,-5.0137,-7.647,
0.0074,-13.05,-5.0136,-7.981,
0.0073,-12.95,-5.0135,-8.331,
0.0073,-12.85,-5.0134,-8.748,
0.0072,-12.75,-5.0134,-9.352,
0.0071,-12.65,-5.0133,-10.023,
0.0071,-12.55,-5.0132,-11.256,
0.007,-12.45,-5.0131,-13.001,
0.0069,-12.35,-5.013,-16.134,
0.0068,-12.25,-5.013,-21.503,
0.0068,-12.15,-5.0129,-29.332,
0.0067,-12.05,-5.0128,-38.375,
0.0066,-11.95,-5.0127,-46.615,
0.0066,-11.85,-5.0126,-52.691,
0.0063,-11.7499,-5.0125,-56.993,
0.006,-11.6499,-5.0125,-59.692,
0.0058,-11.5498,-5.0124,-61.499,
0.0056,-11.4498,-5.0123,-62.880,
0.0053,-11.3497,-5.0122,-63.815,
0.0052,-11.2497,-5.0121,-64.439,
0.0051,-11.1497,-5.012,-65.096,
0.0048,-11.0497,-5.012,-65.583,
0.0046,-10.9497,-5.0119,-66.125,
0.0046,-10.8497,-5.0118,-66.433,
0.0045,-10.7497,-5.0117,-66.771,
0.0044,-10.6497,-5.0116,-67.332,
0.0044,-10.5497,-5.0115,-67.762,
0.0043,-10.4497,-5.0115,-68.071,
0.0042,-10.3497,-5.0114,-68.550,
0.0042,-10.2497,-5.0113,-68.754,
0.0041,-10.1497,-5.0112,-69.385,
0.004,-10.0497,-5.0111,-69.597,
0.004,-9.9497,-5.0111,-70.003,
0.0034,-9.8497,-5.011,-70.439,
0.0027,-9.7497,-5.0109,-70.761,
0.0024,-9.6497,-5.0108,-71.015,
0.0024,-9.5496,-5.0107,-71.387,
0.0025,-9.4496,-5.0106,-72.034,
0.0028,-9.3496,-5.0106,-72.271,
0.0029,-9.2496,-5.0105,-72.448,
0.0029,-9.1495,-5.0104,-72.867,
0.003,-9.0495,-5.0103,-73.211,
0.003,-8.9495,-5.0102,-73.910,
0.0029,-8.8495,-5.0101,-74.335,
0.0028,-8.7495,-5.0101,-74.739,
0.0028,-8.6495,-5.01,-74.649,
0.0027,-8.5495,-5.0099,-75.305,
0.0026,-8.4495,-5.0098,-75.603,
0.0025,-8.3495,-5.0097,-75.852,
0.0025,-8.2495,-5.0096,-76.262,
0.0024,-8.1495,-5.0096,-76.669,
0.0023,-8.0495,-5.0095,-77.062,
0.0023,-7.9495,-5.0094,-77.402,
0.0022,-7.8495,-5.0093,-77.655,
0.0021,-7.7495,-5.0092,-78.165,
0.0019,-7.6497,-5.0091,-78.592,
0.0017,-7.55,-5.0091,-78.833,
0.0016,-7.45,-5.009,-79.405,
0.0016,-7.35,-5.0089,-79.643,
0.0015,-7.25,-5.0088,-80.066,
0.0014,-7.15,-5.0087,-80.147,
0.0014,-7.05,-5.0087,-80.891,
0.0013,-6.95,-5.0086,-81.064,
0.0012,-6.85,-5.0085,-81.469,
0.0011,-6.75,-5.0084,-81.673,
0.0011,-6.6499,-5.0084,-82.071,
0.0011,-6.5497,-5.0084,-82.363,
0.001,-6.4498,-5.0084,-82.773,
0.001,-6.3499,-5.0084,-83.216,
0.001,-6.2497,-5.0085,-83.700,
0.0009,-6.1498,-5.0085,-84.093,
0.0009,-6.05,-5.0085,-84.386,
0.0009,-5.9498,-5.0085,-84.643,
0.0008,-5.8496,-5.0086,-85.034,
0.0008,-5.7497,-5.0086,-85.277,
0.0006,-5.6498,-5.0086,-85.666,
0.0004,-5.5496,-5.0086,-86.286,
0.0004,-5.4497,-5.0087,-86.556,
0.0004,-5.3499,-5.0087,-86.718,
0.0003,-5.2497,-5.0087,-87.312,
0.0001,-5.1498,-5.0088,-87.540,
-0.0001,-5.0499,-5.0088,-87.871,
-0.0002,-4.9497,-5.0088,-88.094,
-0.0002,-4.8498,-5.0088,-88.464,
-0.0002,-4.75,-5.0089,-88.816,
-0.0005,-4.6498,-5.0089,-89.356,
-0.0006,-4.5496,-5.0089,-89.700,
-0.0006,-4.4497,-5.0089,-89.840,
-0.0009,-4.3498,-5.009,-90.475,
-0.001,-4.2496,-5.009,-90.729,
-0.001,-4.1497,-5.009,-90.923,
-0.0011,-4.0499,-5.009,-91.168,
-0.0011,-3.9497,-5.0091,-91.678,
-0.001,-3.8498,-5.0091,-91.827,
-0.0009,-3.7499,-5.0091,-92.486,
-0.0007,-3.6497,-5.0091,-92.915,
-0.0004,-3.5498,-5.0092,-93.006,
-0.0003,-3.4499,-5.0092,-93.192,
-0.0003,-3.3498,-5.0092,-94.279,
-0.0003,-3.2496,-5.0093,-93.925,
-0.0002,-3.1497,-5.0093,-94.181,
-0.0001,-3.0498,-5.0093,-94.190,
-0.0001,-2.9496,-5.0093,-94.856,
-0.0002,-2.8497,-5.0094,-94.635,
-0.0002,-2.7498,-5.0094,-95.442,
-0.0002,-2.6497,-5.0094,-95.910,
-0.0003,-2.5498,-5.0094,-96.049,
-0.0003,-2.4499,-5.0095,-96.099,
-0.0002,-2.3497,-5.0095,-96.628,
-0.0001,-2.2498,-5.0095,-96.616,
-0.0001,-2.1499,-5.0095,-97.166,
-0.0001,-2.0497,-5.0096,-97.102,
-0.0002,-1.9498,-5.0096,-97.387,
-0.0002,-1.8499,-5.0096,-97.905,
-0.0002,-1.7497,-5.0097,-97.716,
-0.0003,-1.6498,-5.0097,-98.075,
-0.0003,-1.5499,-5.0097,-97.994,
-0.0003,-1.4497,-5.0097,-98.190,
-0.0002,-1.3496,-5.0098,-98.403,
-0.0001,-1.2497,-5.0098,-98.602,
-0.0001,-1.1498,-5.0098,-98.875,
-0.0002,-1.0496,-5.0098,-99.310,
-0.0002,-0.9497,-5.0099,-99.291,
-0.0002,-0.8498,-5.0099,-99.432,
-0.0001,-0.7496,-5.0099,-99.374,
0,-0.6497,-5.0099,-99.699,
-0.0002,-0.5499,-5.01,-99.520,
-0.0004,-0.4497,-5.01,-99.443,
-0.0006,-0.3498,-5.01,-99.826,
-0.0007,-0.2499,-5.01,-99.672,
-0.0006,-0.1497,-5.0101,-99.745,
-0.0005,-0.0498,-5.0101,-100.000,
-0.0005,0.05,-5.0101,-99.552,
-0.0006,0.1502,-5.0102,-99.659,
-0.0006,0.2504,-5.0102,-99.610,
-0.0006,0.3503,-5.0102,-99.400,
-0.0007,0.4502,-5.0102,-99.519,
-0.0007,0.5504,-5.0103,-99.318,
-0.0009,0.6503,-5.0103,-99.128,
-0.001,0.7501,-5.0103,-99.014,
-0.0011,0.8503,-5.0103,-98.821,
-0.0011,0.9502,-5.0104,-98.753,
-0.0011,1.0501,-5.0104,-98.503,
-0.0012,1.1503,-5.0104,-98.451,
-0.0012,1.2502,-5.0104,-98.335,
-0.0012,1.35,-5.0105,-97.950,
-0.0013,1.4502,-5.0105,-97.907,
-0.0013,1.5504,-5.0105,-97.729,
-0.0013,1.6503,-5.0106,-97.364,
-0.0014,1.7502,-5.0106,-97.262,
-0.0014,1.8504,-5.0106,-97.163,
-0.0014,1.9503,-5.0106,-96.996,
-0.0015,2.0501,-5.0107,-96.679,
-0.0015,2.1503,-5.0107,-96.589,
-0.0015,2.2502,-5.0107,-95.988,
-0.0014,2.3501,-5.0107,-95.803,
-0.0013,2.4503,-5.0108,-95.443,
-0.0013,2.5502,-5.0108,-94.966,
-0.0014,2.6501,-5.0108,-94.916,
-0.0014,2.7502,-5.0108,-94.719,
-0.0014,2.8501,-5.0108,-94.238,
-0.0014,2.9501,-5.0107,-93.730,
-0.0014,3.0502,-5.0106,-93.909,
-0.0014,3.1502,-5.0105,-93.395,
-0.0014,3.2502,-5.0104,-92.901,
-0.0014,3.3503,-5.0104,-92.877,
-0.0014,3.4503,-5.0103,-92.389,
-0.0014,3.5503,-5.0102,-91.970,
-0.0016,3.6504,-5.0101,-91.491,
-0.0017,3.7504,-5.01,-91.253,
-0.0017,3.8504,-5.0099,-90.882,
-0.0017,3.9503,-5.0098,-90.599,
-0.0017,4.05,-5.0098,-90.500,
-0.0017,4.15,-5.0097,-89.935,
-0.0017,4.25,-5.0096,-89.524,
-0.0017,4.3501,-5.0095,-89.304,
-0.0017,4.4501,-5.0094,-88.935,
-0.0017,4.5501,-5.0093,-88.692,
-0.0017,4.6502,-5.0093,-88.225,
-0.0017,4.7502,-5.0092,-87.876,
-0.0017,4.8502,-5.0091,-87.463,
-0.0017,4.9503,-5.009,-87.045,
-0.0017,5.0503,-5.0089,-86.753,
-0.0017,5.1503,-5.0088,-86.267,
-0.0017,5.2503,-5.0087,-85.959,
-0.0015,5.3504,-5.0087,-85.473,
-0.0014,5.4504,-5.0086,-85.004,
-0.0014,5.5504,-5.0085,-84.676,
-0.0014,5.6505,-5.0084,-84.078,
-0.0014,5.7505,-5.0083,-83.810,
-0.0014,5.8503,-5.0082,-83.416,
-0.0014,5.95,-5.0082,-83.330,
-0.0014,6.05,-5.0081,-82.889,
-0.0014,6.1501,-5.008,-82.434,
-0.0014,6.2501,-5.0079,-81.919,
-0.0014,6.3502,-5.0078,-81.697,
-0.0014,6.4502,-5.0077,-81.439,
-0.0014,6.5502,-5.0076,-80.966,
-0.0012,6.6503,-5.0076,-80.597,
-0.0011,6.7503,-5.0075,-79.773,
-0.0011,6.8503,-5.0074,-79.663,
-0.0011,6.9504,-5.0073,-79.210,
-0.0013,7.0504,-5.0072,-78.756,
-0.0014,7.1504,-5.0071,-78.548,
-0.0014,7.2505,-5.007,-78.101,
-0.0014,7.3505,-5.007,-77.684,
-0.0014,7.4503,-5.0069,-77.269,
-0.0014,7.55,-5.0068,-76.878,
-0.0014,7.6501,-5.0067,-76.372,
-0.0014,7.7501,-5.0066,-76.102,
-0.0014,7.8501,-5.0065,-75.571,
-0.0014,7.9502,-5.0065,-75.090,
-0.0014,8.0502,-5.0064,-74.733,
-0.0012,8.1502,-5.0063,-74.310,
-0.0011,8.2503,-5.0062,-73.859,
-0.0012,8.3503,-5.0061,-73.866,
-0.0012,8.4504,-5.006,-73.306,
-0.0012,8.5504,-5.0059,-72.884,
-0.001,8.6505,-5.0059,-72.442,
-0.0009,8.7505,-5.0058,-71.901,
-0.0009,8.8503,-5.0057,-71.677,
-0.0009,8.95,-5.0056,-71.544,
-0.0009,9.05,-5.0055,-71.143,
-0.0009,9.15,-5.0054,-70.669,
-0.0011,9.2501,-5.0054,-70.039,
-0.0012,9.3501,-5.0053,-69.762,
-0.0012,9.4501,-5.0052,-69.310,
-0.0012,9.5502,-5.0051,-68.989,
-0.0012,9.6502,-5.005,-68.891,
-0.0014,9.7502,-5.0049,-68.545,
-0.0015,9.8502,-5.0048,-68.033,
-0.0015,9.9503,-5.0048,-67.433,
-0.0015,10.0503,-5.0047,-67.172,
-0.0015,10.1503,-5.0046,-66.773,
-0.0015,10.2504,-5.0045,-66.340,
-0.0015,10.3504,-5.0044,-65.829,
-0.0015,10.4504,-5.0043,-65.562,
-0.0015,10.5505,-5.0042,-65.067,
-0.0015,10.6503,-5.0042,-64.874,
-0.0015,10.75,-5.0041,-64.322,
-0.0015,10.85,-5.004,-63.700,
-0.0015,10.9501,-5.0039,-63.453,
-0.0017,11.0501,-5.0038,-62.875,
-0.0018,11.1501,-5.0037,-62.313,
-0.0018,11.2502,-5.0037,-61.652,
-0.0018,11.3502,-5.0036,-61.077,
-0.0018,11.4502,-5.0035,-60.325,
-0.0018,11.5503,-5.0034,-59.447,
-0.0018,11.6503,-5.0033,-58.384,
-0.0018,11.7503,-5.0032,-56.490,
-0.0018,11.8504,-5.0031,-53.909,
-0.0016,11.9504,-5.0031,-49.279,
-0.0015,12.0504,-5.003,-42.006,
-0.0015,12.1504,-5.0029,-32.642,
-0.0014,12.2504,-5.0027,-23.594,
-0.0013,12.3504,-5.0026,-16.425,
-0.0013,12.4505,-5.0024,-11.857,
-0.0012,12.5505,-5.0022,-9.128,
-0.0011,12.6503,-5.0021,-7.602,
-0.001,12.75,-5.0019,-6.571,
-0.0009,12.85,-5.0018,-5.829,
-0.0008,12.95,-5.0016,-5.358,
-0.0007,13.0501,-5.0015,-4.904,
-0.0007,13.1501,-5.0013,-4.697,
-0.0006,13.2502,-5.0011,-4.378,
-0.0006,13.3502,-5.001,-4.151,
-0.0007,13.4502,-5.0008,-3.939,
-0.0006,13.5503,-5.0007,-3.691,
-0.0005,13.6503,-5.0005,-3.407,
-0.0004,13.7504,-5.0003,-3.187,
-0.0002,13.8504,-5.0002,-3.036,
0,13.9498,-5,-2.830,

Checksum:,B07683F0CA5EDA7C2F3D932AE3486B85C89BA519ED902D71AE67598CA542E43E