HEADER
Header Length,87
Export file version,2.0


Export settings:
Normalise,Yes
For TPS,No
Smoothing level,None

Units:
length,[cm]
amperage,[pA]

Project:
Project,Micro Silicon X SN 151916
Project run number,2
Project run note,

Irradiation unit:
Name,VCU MRIdian
Manufacturer,ViewRay
Model,MRIdian
Source-isocentre distance,90,[cm]

Thales:
Control unit UID,00-3B-00-43-4B-56-50-11-20-37-30-53
Electrometer UID,00-4E-00-36-58-4B-50-0D-20-34-34-41
Water phantom UID,4A-B3-52-04-00-00-00-0A

Field detector:
Serial number,151916
Manufacturer,PTW
Model,Micro Silicon X
Bias voltage,0,[V]

Reference detector:
Serial number,XMC213192
Manufacturer,Standard Imaging
Model,A28MR Ref
Bias voltage,-300,[V]

Zeroing offsets:
Field detector,-0.861,[pA]
Reference detector,-0.892,[pA]

Profile settings:
Measurement mode,Continuous
Creation time,2023-01-21T18:27:05.0498634-05:00
SSD,85,[cm]
Gantry angle,0,[°]
Field size crossline,19.92,[cm]
Field size inline,19.92,[cm]
Beam quality,6,[MV]
Flattening Filter,FFF
Time to wait prior to sampling,0,[s]

Profile:
Profile type,Crossline
Profile status,Completed successfully
Start X,-11,[cm]
Start Y,0,[cm]
Start Z,-5,[cm]
Stop X,11,[cm]
Stop Y,0,[cm]
Stop Z,-5,[cm]
Couch tilt x,0.08,[°]
Couch tilt y,0.01,[°]

Region count,1

Region 1 Start,0,[µm]
Region 1 Stop,220000,[µm]
Step size,1000,[µm]
Speed,1050,[µm/s]
Integration time,953,[ms]

Analysis result:
Analysis method,Max value
Calculated centre,0.015464,[cm]
Calculated field width,19.683485,[cm]
Calculated penumbra left,3.279641,[cm]
Calculated penumbra right,7.056503,[cm]
Calculated symmetry,0.868,[%]
Normalisation factor,0.009516,


MEASUREMENT DATA

X [cm],Y [cm],Z [cm],Normalised dose [%],
-10.9508,-0.0016,-5.0022,-6.464,
-10.85,-0.0021,-5.0044,-6.882,
-10.75,-0.002,-5.0046,-7.144,
-10.6499,-0.0019,-5.0048,-7.679,
-10.5499,-0.0018,-5.005,-8.260,
-10.45,-0.0018,-5.0052,-9.013,
-10.35,-0.0017,-5.0054,-10.261,
-10.25,-0.0016,-5.0055,-12.582,
-10.15,-0.0015,-5.0057,-17.268,
-10.05,-0.0014,-5.0059,-25.517,
-9.95,-0.0013,-5.0061,-37.154,
-9.85,-0.0013,-5.0063,-48.241,
-9.75,-0.0012,-5.0065,-55.657,
-9.65,-0.0011,-5.0067,-60.766,
-9.5499,-0.001,-5.0068,-63.809,
-9.4499,-0.0009,-5.007,-66.003,
-9.3499,-0.0009,-5.0072,-67.588,
-9.2499,-0.0008,-5.0074,-68.581,
-9.1498,-0.0007,-5.0075,-69.387,
-9.0499,-0.0007,-5.0075,-69.910,
-8.9499,-0.0007,-5.0074,-70.593,
-8.8498,-0.0007,-5.0073,-71.398,
-8.7499,-0.0007,-5.0073,-71.659,
-8.6499,-0.0008,-5.0072,-72.288,
-8.5498,-0.0008,-5.0071,-72.790,
-8.4499,-0.0008,-5.0071,-73.244,
-8.3498,-0.0008,-5.007,-73.647,
-8.2499,-0.0008,-5.0069,-74.148,
-8.15,-0.0008,-5.0069,-74.532,
-8.05,-0.0008,-5.0068,-75.127,
-7.9499,-0.0009,-5.0067,-75.522,
-7.8499,-0.0009,-5.0067,-76.062,
-7.7499,-0.0009,-5.0066,-76.434,
-7.6499,-0.0009,-5.0065,-76.876,
-7.5498,-0.0009,-5.0064,-77.199,
-7.4498,-0.0009,-5.0064,-77.781,
-7.3497,-0.0009,-5.0063,-78.098,
-7.2499,-0.001,-5.0062,-78.572,
-7.1499,-0.001,-5.0062,-78.984,
-7.0498,-0.001,-5.0061,-79.231,
-6.9498,-0.001,-5.006,-79.752,
-6.8498,-0.001,-5.006,-79.897,
-6.7499,-0.001,-5.0059,-80.716,
-6.6499,-0.001,-5.0058,-81.079,
-6.5498,-0.0011,-5.0058,-81.552,
-6.4499,-0.0011,-5.0057,-81.607,
-6.3499,-0.0011,-5.0056,-82.174,
-6.2499,-0.0011,-5.0056,-82.569,
-6.1499,-0.0011,-5.0055,-82.931,
-6.0498,-0.0011,-5.0054,-83.326,
-5.9499,-0.0011,-5.0054,-84.000,
-5.8499,-0.0012,-5.0053,-84.134,
-5.7498,-0.0012,-5.0052,-84.424,
-5.6499,-0.0012,-5.0052,-84.891,
-5.5498,-0.0012,-5.0051,-85.377,
-5.4499,-0.0012,-5.005,-85.840,
-5.3499,-0.0012,-5.005,-86.026,
-5.2498,-0.0012,-5.0049,-86.405,
-5.1498,-0.0013,-5.0048,-86.952,
-5.0497,-0.0013,-5.0048,-86.746,
-4.9499,-0.0013,-5.0047,-87.708,
-4.85,-0.0013,-5.0046,-88.126,
-4.7499,-0.0013,-5.0046,-88.162,
-4.6499,-0.0013,-5.0045,-88.713,
-4.5498,-0.0013,-5.0044,-89.089,
-4.4498,-0.0014,-5.0044,-89.457,
-4.3499,-0.0014,-5.0043,-89.801,
-4.2499,-0.0014,-5.0042,-90.251,
-4.1499,-0.0014,-5.0042,-90.431,
-4.0499,-0.0014,-5.0041,-90.938,
-3.9498,-0.0014,-5.004,-90.951,
-3.8499,-0.0014,-5.004,-91.733,
-3.7499,-0.0015,-5.0039,-91.977,
-3.6498,-0.0015,-5.0038,-92.264,
-3.5499,-0.0015,-5.0037,-92.499,
-3.45,-0.0015,-5.0037,-92.811,
-3.3499,-0.0015,-5.0036,-93.247,
-3.2499,-0.0015,-5.0035,-93.601,
-3.1498,-0.0015,-5.0035,-94.004,
-3.0499,-0.0016,-5.0034,-94.341,
-2.9499,-0.0016,-5.0033,-94.399,
-2.8499,-0.0016,-5.0033,-94.924,
-2.7499,-0.0016,-5.0032,-95.019,
-2.6499,-0.0016,-5.0031,-95.405,
-2.5499,-0.0016,-5.0031,-95.856,
-2.4498,-0.0017,-5.003,-96.085,
-2.3499,-0.0017,-5.0029,-96.235,
-2.2499,-0.0017,-5.0029,-96.443,
-2.1498,-0.0017,-5.0028,-96.789,
-2.0499,-0.0017,-5.0027,-97.152,
-1.95,-0.0017,-5.0027,-97.060,
-1.8499,-0.0017,-5.0026,-97.481,
-1.7499,-0.0018,-5.0025,-97.673,
-1.6498,-0.0018,-5.0025,-97.900,
-1.5499,-0.0018,-5.0024,-98.271,
-1.4499,-0.0018,-5.0023,-98.334,
-1.3498,-0.0018,-5.0023,-98.797,
-1.2499,-0.0018,-5.0022,-98.919,
-1.1498,-0.0018,-5.0021,-98.853,
-1.0499,-0.0019,-5.0021,-99.113,
-0.9499,-0.0019,-5.002,-99.444,
-0.8498,-0.0019,-5.0019,-99.603,
-0.7498,-0.0019,-5.0019,-99.591,
-0.6498,-0.0019,-5.0018,-99.794,
-0.5499,-0.0019,-5.0017,-100.000,
-0.45,-0.0019,-5.0017,-99.806,
-0.3499,-0.002,-5.0016,-99.971,
-0.2499,-0.002,-5.0015,-99.517,
-0.1498,-0.002,-5.0015,-99.879,
-0.0499,-0.002,-5.0014,-99.623,
0.0501,-0.002,-5.0013,-99.877,
0.15,-0.002,-5.0013,-99.464,
0.25,-0.002,-5.0012,-99.518,
0.3501,-0.002,-5.0012,-99.789,
0.4502,-0.002,-5.0012,-99.320,
0.55,-0.002,-5.0012,-99.153,
0.65,-0.002,-5.0012,-99.409,
0.7501,-0.0019,-5.0012,-98.943,
0.8502,-0.0019,-5.0012,-98.825,
0.95,-0.0019,-5.0012,-98.940,
1.05,-0.0019,-5.0012,-98.433,
1.1501,-0.0019,-5.0012,-98.621,
1.2502,-0.0019,-5.0012,-98.619,
1.35,-0.0018,-5.0012,-98.358,
1.45,-0.0018,-5.0012,-98.127,
1.5501,-0.0018,-5.0012,-98.266,
1.6502,-0.0018,-5.0012,-97.976,
1.7501,-0.0018,-5.0012,-97.803,
1.8501,-0.0018,-5.0012,-97.330,
1.9501,-0.0017,-5.0012,-97.292,
2.0501,-0.0017,-5.0012,-97.007,
2.1501,-0.0017,-5.0012,-96.855,
2.2501,-0.0017,-5.0012,-96.422,
2.3501,-0.0017,-5.0012,-96.249,
2.4501,-0.0016,-5.0012,-96.102,
2.55,-0.0016,-5.0012,-96.190,
2.6501,-0.0016,-5.0012,-95.741,
2.75,-0.0016,-5.0012,-95.132,
2.8501,-0.0016,-5.0013,-95.235,
2.95,-0.0016,-5.0013,-94.491,
3.0501,-0.0015,-5.0013,-94.345,
3.15,-0.0015,-5.0013,-94.050,
3.2501,-0.0015,-5.0013,-93.748,
3.35,-0.0015,-5.0013,-93.379,
3.4501,-0.0015,-5.0013,-92.875,
3.55,-0.0014,-5.0013,-92.738,
3.6501,-0.0014,-5.0013,-92.463,
3.75,-0.0014,-5.0013,-92.305,
3.8501,-0.0014,-5.0013,-91.789,
3.95,-0.0014,-5.0013,-91.510,
4.0502,-0.0014,-5.0013,-91.098,
4.1502,-0.0013,-5.0013,-91.015,
4.2501,-0.0013,-5.0013,-90.278,
4.3502,-0.0013,-5.0013,-90.353,
4.4501,-0.0013,-5.0013,-90.025,
4.5501,-0.0013,-5.0013,-89.519,
4.6501,-0.0013,-5.0013,-89.354,
4.7501,-0.0012,-5.0013,-88.742,
4.85,-0.0012,-5.0013,-88.368,
4.95,-0.0012,-5.0013,-87.909,
5.0501,-0.0012,-5.0013,-87.695,
5.15,-0.0012,-5.0013,-87.432,
5.2501,-0.0011,-5.0013,-86.991,
5.35,-0.0011,-5.0013,-86.435,
5.4501,-0.0011,-5.0013,-86.219,
5.55,-0.0011,-5.0013,-85.618,
5.6501,-0.0011,-5.0013,-85.380,
5.75,-0.0011,-5.0013,-84.856,
5.8501,-0.001,-5.0013,-84.502,
5.95,-0.001,-5.0013,-84.327,
6.0501,-0.001,-5.0013,-83.691,
6.15,-0.001,-5.0013,-83.403,
6.2501,-0.001,-5.0013,-83.091,
6.3501,-0.0009,-5.0013,-82.898,
6.4501,-0.0009,-5.0013,-82.408,
6.5501,-0.0009,-5.0013,-81.786,
6.6501,-0.0009,-5.0013,-81.514,
6.7501,-0.0009,-5.0013,-80.992,
6.8501,-0.0009,-5.0013,-80.687,
6.9501,-0.0008,-5.0013,-80.175,
7.0501,-0.0008,-5.0013,-80.031,
7.1501,-0.0008,-5.0013,-79.552,
7.2501,-0.0008,-5.0013,-79.343,
7.3501,-0.0008,-5.0013,-78.788,
7.4501,-0.0008,-5.0014,-78.418,
7.5501,-0.0007,-5.0014,-77.752,
7.6501,-0.0007,-5.0014,-77.354,
7.7501,-0.0007,-5.0014,-76.986,
7.8501,-0.0007,-5.0014,-76.563,
7.9501,-0.0007,-5.0014,-76.154,
8.0501,-0.0006,-5.0014,-75.745,
8.1501,-0.0006,-5.0014,-75.221,
8.25,-0.0006,-5.0014,-74.813,
8.3501,-0.0006,-5.0014,-74.259,
8.45,-0.0006,-5.0014,-74.129,
8.5501,-0.0006,-5.0014,-73.477,
8.65,-0.0005,-5.0014,-73.080,
8.7502,-0.0005,-5.0014,-72.464,
8.8502,-0.0005,-5.0014,-72.086,
8.9502,-0.0005,-5.0014,-71.484,
9.0502,-0.0005,-5.0014,-70.718,
9.1502,-0.0005,-5.0014,-70.138,
9.2502,-0.0004,-5.0014,-69.564,
9.3502,-0.0004,-5.0014,-68.533,
9.4502,-0.0004,-5.0014,-67.359,
9.5501,-0.0004,-5.0014,-65.691,
9.6501,-0.0004,-5.0014,-62.922,
9.75,-0.0004,-5.0013,-58.117,
9.8501,-0.0004,-5.0012,-50.747,
9.95,-0.0004,-5.0011,-40.244,
10.0501,-0.0004,-5.001,-28.428,
10.15,-0.0005,-5.0009,-19.134,
10.2502,-0.0005,-5.0008,-13.582,
10.3502,-0.0005,-5.0007,-10.638,
10.4501,-0.0005,-5.0007,-9.055,
10.55,-0.0005,-5.0006,-8.310,
10.6501,-0.0006,-5.0005,-7.709,
10.7501,-0.0006,-5.0004,-7.344,
10.8501,-0.0006,-5.0003,-7.019,
10.95,-0.0006,-5.0002,-6.814,

Checksum:,C325ACA54CB5A80409181F8B9455EBA6BC2F0694E4C07C7DB332D764BD3AB080