HEADER
Header Length,87
Export file version,2.0


Export settings:
Normalise,Yes
For TPS,No
Smoothing level,None

Units:
length,[cm]
amperage,[pA]

Project:
Project,A28MR Field Detector SN XMC213190
Project run number,12
Project run note,

Irradiation unit:
Name,VCU MRIdian
Manufacturer,ViewRay
Model,MRIdian
Source-isocentre distance,90,[cm]

Thales:
Control unit UID,00-3B-00-43-4B-56-50-11-20-37-30-53
Electrometer UID,00-4E-00-36-58-4B-50-0D-20-34-34-41
Water phantom UID,4A-B3-52-04-00-00-00-0A

Field detector:
Serial number,XMC213190
Manufacturer,Standard Imaging
Model,A28MR Field
Bias voltage,-300,[V]

Reference detector:
Serial number,XMC213192
Manufacturer,Standard Imaging
Model,A28MR Ref
Bias voltage,-300,[V]

Zeroing offsets:
Field detector,-0.842,[pA]
Reference detector,-0.875,[pA]

Profile settings:
Measurement mode,Continuous
Creation time,2022-12-18T17:44:27.1852386-05:00
SSD,85,[cm]
Gantry angle,0,[°]
Field size crossline,19.92,[cm]
Field size inline,19.92,[cm]
Beam quality,6,[MV]
Flattening Filter,FFF
Time to wait prior to sampling,0,[s]

Profile:
Profile type,Crossline
Profile status,Completed successfully
Start X,-11,[cm]
Start Y,0,[cm]
Start Z,-5,[cm]
Stop X,11,[cm]
Stop Y,0,[cm]
Stop Z,-5,[cm]
Couch tilt x,0.08,[°]
Couch tilt y,0.01,[°]

Region count,1

Region 1 Start,0,[µm]
Region 1 Stop,220000,[µm]
Step size,1000,[µm]
Speed,1050,[µm/s]
Integration time,953,[ms]

Analysis result:
Analysis method,Max value
Calculated centre,0.014938,[cm]
Calculated field width,19.615975,[cm]
Calculated penumbra left,3.207134,[cm]
Calculated penumbra right,3.213282,[cm]
Calculated symmetry,0.990,[%]
Normalisation factor,0.017525,


MEASUREMENT DATA

X [cm],Y [cm],Z [cm],Normalised dose [%],
-10.9502,0.0012,-5.0028,7.274,
-10.8498,0.0029,-5.0056,7.857,
-10.7499,0.0033,-5.0058,8.398,
-10.6498,0.0035,-5.0059,9.165,
-10.5498,0.0036,-5.0061,10.114,
-10.4499,0.0038,-5.0062,11.695,
-10.35,0.0039,-5.0064,14.323,
-10.25,0.0041,-5.0066,18.505,
-10.1499,0.0043,-5.0067,24.273,
-10.0499,0.0044,-5.0069,31.384,
-9.9498,0.0046,-5.0071,38.809,
-9.8499,0.0047,-5.0072,45.987,
-9.7499,0.0049,-5.0074,53.045,
-9.6498,0.005,-5.0075,58.394,
-9.55,0.0052,-5.0077,62.398,
-9.4499,0.0053,-5.0079,65.263,
-9.3498,0.0055,-5.008,67.297,
-9.2499,0.0056,-5.0081,68.268,
-9.15,0.0055,-5.0081,69.214,
-9.0499,0.0054,-5.008,69.771,
-8.9499,0.0054,-5.008,70.932,
-8.8499,0.0053,-5.0079,71.299,
-8.75,0.0052,-5.0079,72.125,
-8.65,0.0051,-5.0078,72.493,
-8.5499,0.0051,-5.0078,73.103,
-8.4499,0.005,-5.0077,73.289,
-8.35,0.0049,-5.0077,74.255,
-8.25,0.0048,-5.0076,74.723,
-8.1499,0.0048,-5.0076,74.777,
-8.05,0.0047,-5.0075,75.439,
-7.9501,0.0046,-5.0075,75.733,
-7.85,0.0045,-5.0074,76.338,
-7.75,0.0045,-5.0074,76.575,
-7.6499,0.0044,-5.0073,77.066,
-7.5498,0.0043,-5.0073,77.530,
-7.4499,0.0042,-5.0072,77.922,
-7.35,0.0041,-5.0072,78.405,
-7.25,0.0041,-5.0071,78.968,
-7.1499,0.004,-5.0071,79.400,
-7.0498,0.0039,-5.007,79.742,
-6.9499,0.0038,-5.007,80.527,
-6.85,0.0038,-5.0069,80.337,
-6.75,0.0037,-5.0069,80.942,
-6.6499,0.0036,-5.0068,81.156,
-6.5498,0.0035,-5.0068,81.963,
-6.4499,0.0035,-5.0067,81.864,
-6.35,0.0034,-5.0067,82.527,
-6.2499,0.0033,-5.0066,82.791,
-6.1498,0.0032,-5.0066,83.131,
-6.0499,0.0032,-5.0065,83.822,
-5.95,0.0031,-5.0065,84.379,
-5.8499,0.003,-5.0064,84.487,
-5.7499,0.0029,-5.0064,84.934,
-5.6498,0.0029,-5.0063,85.276,
-5.5499,0.0028,-5.0063,85.775,
-5.45,0.0027,-5.0062,85.500,
-5.3499,0.0026,-5.0062,86.363,
-5.25,0.0025,-5.0061,86.759,
-5.1501,0.0025,-5.0061,87.129,
-5.05,0.0024,-5.006,87.475,
-4.95,0.0023,-5.006,88.017,
-4.8499,0.0022,-5.0059,88.253,
-4.7499,0.0022,-5.0059,88.672,
-4.6498,0.0021,-5.0058,89.115,
-4.5499,0.002,-5.0058,89.540,
-4.4499,0.0019,-5.0057,89.950,
-4.3498,0.0019,-5.0057,90.103,
-4.2499,0.0018,-5.0056,90.518,
-4.15,0.0017,-5.0056,90.832,
-4.0499,0.0016,-5.0055,91.398,
-3.9498,0.0016,-5.0054,91.345,
-3.8499,0.0015,-5.0054,91.615,
-3.75,0.0014,-5.0053,91.774,
-3.6499,0.0013,-5.0053,92.242,
-3.5499,0.0013,-5.0052,92.560,
-3.4499,0.0012,-5.0052,92.781,
-3.35,0.0011,-5.0051,93.243,
-3.25,0.001,-5.0051,93.568,
-3.1499,0.0009,-5.005,94.075,
-3.0499,0.0009,-5.005,94.116,
-2.9499,0.0008,-5.0049,94.487,
-2.85,0.0007,-5.0049,94.543,
-2.75,0.0006,-5.0048,94.946,
-2.6499,0.0006,-5.0048,95.521,
-2.5498,0.0005,-5.0047,95.923,
-2.4499,0.0004,-5.0047,96.191,
-2.35,0.0003,-5.0046,95.794,
-2.25,0.0003,-5.0046,96.520,
-2.1499,0.0002,-5.0045,97.169,
-2.0499,0.0001,-5.0045,97.025,
-1.95,0,-5.0044,97.576,
-1.85,0,-5.0044,98.219,
-1.7499,-0.0001,-5.0043,97.772,
-1.6498,-0.0002,-5.0043,97.807,
-1.5499,-0.0003,-5.0042,97.992,
-1.45,-0.0004,-5.0042,98.034,
-1.35,-0.0004,-5.0041,99.051,
-1.2499,-0.0005,-5.0041,99.158,
-1.1498,-0.0006,-5.004,98.762,
-1.0499,-0.0007,-5.004,99.038,
-0.95,-0.0007,-5.0039,99.143,
-0.8499,-0.0008,-5.0039,98.889,
-0.7498,-0.0009,-5.0038,99.617,
-0.6499,-0.001,-5.0038,99.200,
-0.55,-0.001,-5.0037,99.363,
-0.4499,-0.0011,-5.0037,99.598,
-0.3499,-0.0012,-5.0036,100.000,
-0.2498,-0.0013,-5.0036,99.999,
-0.1499,-0.0013,-5.0035,99.901,
-0.05,-0.0014,-5.0035,98.945,
0.0501,-0.0015,-5.0034,99.439,
0.15,-0.0015,-5.0034,99.230,
0.2501,-0.0015,-5.0034,99.629,
0.3501,-0.0015,-5.0033,99.201,
0.45,-0.0014,-5.0033,99.214,
0.55,-0.0014,-5.0033,99.103,
0.6501,-0.0014,-5.0033,98.930,
0.7501,-0.0014,-5.0033,98.653,
0.85,-0.0013,-5.0033,99.003,
0.9501,-0.0013,-5.0033,98.572,
1.0501,-0.0013,-5.0033,98.603,
1.1501,-0.0012,-5.0033,98.206,
1.25,-0.0012,-5.0032,98.379,
1.3501,-0.0012,-5.0032,98.045,
1.4501,-0.0011,-5.0032,98.097,
1.5501,-0.0011,-5.0032,98.181,
1.65,-0.0011,-5.0032,97.948,
1.7501,-0.001,-5.0032,97.637,
1.85,-0.001,-5.0032,97.551,
1.9499,-0.001,-5.0032,97.213,
2.05,-0.0009,-5.0032,96.966,
2.1501,-0.0009,-5.0031,96.958,
2.2502,-0.0009,-5.0031,96.731,
2.3501,-0.0009,-5.0031,96.466,
2.45,-0.0008,-5.0031,96.015,
2.5501,-0.0008,-5.0031,95.809,
2.6501,-0.0008,-5.0031,95.372,
2.75,-0.0007,-5.0031,95.388,
2.85,-0.0007,-5.0031,94.816,
2.9501,-0.0007,-5.003,94.690,
3.0501,-0.0006,-5.003,94.066,
3.15,-0.0006,-5.003,94.089,
3.2501,-0.0006,-5.003,93.483,
3.3502,-0.0005,-5.003,93.521,
3.4501,-0.0005,-5.003,92.934,
3.55,-0.0005,-5.003,92.906,
3.6501,-0.0004,-5.003,92.615,
3.7501,-0.0004,-5.003,92.055,
3.8501,-0.0004,-5.0029,91.703,
3.95,-0.0004,-5.0029,92.127,
4.0501,-0.0003,-5.0029,91.207,
4.1501,-0.0003,-5.0029,90.588,
4.25,-0.0003,-5.0029,90.414,
4.35,-0.0002,-5.0029,90.035,
4.4501,-0.0002,-5.0029,89.412,
4.5502,-0.0002,-5.0029,89.556,
4.6501,-0.0001,-5.0029,88.734,
4.7502,-0.0001,-5.0028,88.491,
4.8502,-0.0001,-5.0028,88.434,
4.9501,0,-5.0028,88.381,
5.0501,0,-5.0028,87.589,
5.1501,0,-5.0028,87.084,
5.25,0,-5.0028,86.681,
5.35,0.0001,-5.0028,86.395,
5.4501,0.0001,-5.0028,86.174,
5.5502,0.0001,-5.0027,85.844,
5.6501,0.0002,-5.0027,85.200,
5.75,0.0002,-5.0027,84.966,
5.8502,0.0002,-5.0027,84.201,
5.9501,0.0003,-5.0027,83.811,
6.05,0.0003,-5.0027,83.675,
6.1501,0.0003,-5.0027,83.522,
6.2502,0.0004,-5.0027,83.240,
6.3501,0.0004,-5.0027,82.694,
6.45,0.0004,-5.0026,82.431,
6.5501,0.0005,-5.0026,81.641,
6.6501,0.0005,-5.0026,81.765,
6.7501,0.0005,-5.0026,81.011,
6.85,0.0005,-5.0026,80.649,
6.9501,0.0006,-5.0026,80.492,
7.0501,0.0006,-5.0026,79.891,
7.15,0.0006,-5.0026,79.942,
7.25,0.0007,-5.0025,78.853,
7.3501,0.0007,-5.0025,78.517,
7.4501,0.0007,-5.0025,78.066,
7.55,0.0008,-5.0025,78.038,
7.65,0.0008,-5.0025,77.626,
7.7501,0.0008,-5.0025,76.950,
7.8501,0.0009,-5.0025,76.311,
7.95,0.0009,-5.0025,76.130,
8.0501,0.0009,-5.0025,75.736,
8.1502,0.001,-5.0024,75.480,
8.2501,0.001,-5.0024,74.538,
8.35,0.001,-5.0024,74.430,
8.4501,0.001,-5.0024,74.100,
8.5502,0.0011,-5.0024,73.320,
8.6501,0.0011,-5.0024,72.834,
8.75,0.0011,-5.0024,72.357,
8.8501,0.0012,-5.0024,72.141,
8.9501,0.0012,-5.0024,71.170,
9.05,0.0012,-5.0023,70.376,
9.15,0.0013,-5.0023,69.878,
9.2501,0.0013,-5.0023,68.921,
9.3501,0.0013,-5.0023,67.551,
9.4501,0.0014,-5.0023,65.842,
9.5502,0.0013,-5.0022,63.652,
9.6502,0.0012,-5.002,60.076,
9.7501,0.0011,-5.0019,54.906,
9.8501,0.0011,-5.0017,48.169,
9.9501,0.001,-5.0016,40.602,
10.0502,0.0009,-5.0014,33.028,
10.1503,0.0008,-5.0013,25.831,
10.2502,0.0007,-5.0011,19.695,
10.3502,0.0006,-5.001,14.901,
10.4501,0.0005,-5.0008,11.845,
10.5501,0.0004,-5.0007,10.057,
10.6501,0.0003,-5.0005,9.004,
10.75,0.0003,-5.0004,8.301,
10.85,0.0002,-5.0003,7.843,
10.95,0.0001,-5.0001,7.500,

Checksum:,28414AE8150A14C5565B10EF54A1EB52A9588804E6BE8C6D2EF9DE844DE2E279