HEADER
Header Length,87
Export file version,2.0


Export settings:
Normalise,Yes
For TPS,No
Smoothing level,None

Units:
length,[cm]
amperage,[pA]

Project:
Project,Micro Silicon SN 152329
Project run number,1
Project run note,

Irradiation unit:
Name,VCU MRIdian
Manufacturer,ViewRay
Model,MRIdian
Source-isocentre distance,90,[cm]

Thales:
Control unit UID,00-3B-00-43-4B-56-50-11-20-37-30-53
Electrometer UID,00-4E-00-36-58-4B-50-0D-20-34-34-41
Water phantom UID,4A-B3-52-04-00-00-00-0A

Field detector:
Serial number,152329
Manufacturer,PTW
Model,Micro Silicon
Bias voltage,0,[V]

Reference detector:
Serial number,XMC213192
Manufacturer,Standard Imaging
Model,A28MR Ref
Bias voltage,-300,[V]

Zeroing offsets:
Field detector,-0.857,[pA]
Reference detector,-0.89,[pA]

Profile settings:
Measurement mode,Continuous
Creation time,2023-01-22T17:54:51.0685704-05:00
SSD,85,[cm]
Gantry angle,0,[°]
Field size crossline,19.92,[cm]
Field size inline,19.92,[cm]
Beam quality,6,[MV]
Flattening Filter,FFF
Time to wait prior to sampling,0,[s]

Profile:
Profile type,Crossline
Profile status,Completed successfully
Start X,-11,[cm]
Start Y,0,[cm]
Start Z,-5,[cm]
Stop X,11,[cm]
Stop Y,0,[cm]
Stop Z,-5,[cm]
Couch tilt x,0.06,[°]
Couch tilt y,0.03,[°]

Region count,1

Region 1 Start,0,[µm]
Region 1 Stop,220000,[µm]
Step size,1000,[µm]
Speed,1050,[µm/s]
Integration time,953,[ms]

Analysis result:
Analysis method,Max value
Calculated centre,0.014082,[cm]
Calculated field width,19.671996,[cm]
Calculated penumbra left,3.211597,[cm]
Calculated penumbra right,3.120737,[cm]
Calculated symmetry,1.049,[%]
Normalisation factor,0.010272,


MEASUREMENT DATA

X [cm],Y [cm],Z [cm],Normalised dose [%],
-10.9509,-0.0013,-5.0024,-8.216,
-10.85,-0.0018,-5.0048,-8.617,
-10.75,-0.0017,-5.005,-9.022,
-10.65,-0.0016,-5.0051,-9.558,
-10.55,-0.0015,-5.0053,-10.169,
-10.45,-0.0014,-5.0055,-11.035,
-10.35,-0.0014,-5.0057,-12.320,
-10.25,-0.0013,-5.0059,-14.287,
-10.1499,-0.0012,-5.0061,-18.115,
-10.0499,-0.0011,-5.0063,-25.661,
-9.9499,-0.001,-5.0064,-36.868,
-9.8499,-0.0009,-5.0066,-47.841,
-9.75,-0.0008,-5.0068,-55.549,
-9.6499,-0.0008,-5.007,-60.617,
-9.5499,-0.0007,-5.0072,-63.591,
-9.4499,-0.0006,-5.0074,-65.885,
-9.3499,-0.0005,-5.0075,-67.437,
-9.2498,-0.0005,-5.0075,-68.357,
-9.1499,-0.0005,-5.0074,-69.265,
-9.0498,-0.0005,-5.0073,-69.960,
-8.9499,-0.0005,-5.0073,-70.541,
-8.8499,-0.0006,-5.0072,-70.981,
-8.7498,-0.0006,-5.0071,-71.807,
-8.6498,-0.0006,-5.0071,-72.258,
-8.5498,-0.0006,-5.007,-72.397,
-8.4498,-0.0006,-5.0069,-73.279,
-8.3497,-0.0006,-5.0069,-73.682,
-8.2499,-0.0006,-5.0068,-73.985,
-8.15,-0.0007,-5.0068,-74.480,
-8.05,-0.0007,-5.0067,-75.128,
-7.9499,-0.0007,-5.0066,-75.393,
-7.85,-0.0007,-5.0066,-75.786,
-7.7499,-0.0007,-5.0065,-76.902,
-7.6499,-0.0007,-5.0064,-76.895,
-7.5498,-0.0007,-5.0064,-77.332,
-7.4499,-0.0008,-5.0063,-77.739,
-7.3499,-0.0008,-5.0062,-78.245,
-7.2499,-0.0008,-5.0062,-78.619,
-7.1499,-0.0008,-5.0061,-79.127,
-7.0498,-0.0008,-5.006,-79.583,
-6.9499,-0.0008,-5.006,-79.914,
-6.8499,-0.0008,-5.0059,-80.149,
-6.7499,-0.0009,-5.0058,-80.898,
-6.6499,-0.0009,-5.0058,-80.968,
-6.5498,-0.0009,-5.0057,-81.550,
-6.4499,-0.0009,-5.0056,-82.284,
-6.3499,-0.0009,-5.0056,-82.339,
-6.2498,-0.0009,-5.0055,-82.679,
-6.1498,-0.001,-5.0054,-83.129,
-6.0498,-0.001,-5.0054,-83.403,
-5.9498,-0.001,-5.0053,-83.616,
-5.8498,-0.001,-5.0052,-84.264,
-5.7499,-0.001,-5.0052,-84.318,
-5.6499,-0.001,-5.0051,-84.879,
-5.5498,-0.001,-5.005,-85.506,
-5.4499,-0.0011,-5.005,-85.627,
-5.35,-0.0011,-5.0049,-86.232,
-5.2499,-0.0011,-5.0049,-86.571,
-5.1499,-0.0011,-5.0048,-86.887,
-5.0498,-0.0011,-5.0047,-87.263,
-4.9499,-0.0011,-5.0047,-87.693,
-4.85,-0.0011,-5.0046,-87.657,
-4.7501,-0.0012,-5.0045,-88.490,
-4.65,-0.0012,-5.0045,-88.815,
-4.5499,-0.0012,-5.0044,-88.825,
-4.4498,-0.0012,-5.0043,-89.307,
-4.3499,-0.0012,-5.0043,-89.981,
-4.2499,-0.0012,-5.0042,-90.386,
-4.1499,-0.0012,-5.0041,-90.747,
-4.0499,-0.0013,-5.0041,-90.969,
-3.9498,-0.0013,-5.004,-91.148,
-3.8498,-0.0013,-5.0039,-91.379,
-3.7498,-0.0013,-5.0039,-91.993,
-3.6499,-0.0013,-5.0038,-92.083,
-3.5499,-0.0013,-5.0037,-92.633,
-3.4498,-0.0013,-5.0037,-93.212,
-3.3499,-0.0014,-5.0036,-93.198,
-3.2498,-0.0014,-5.0035,-93.529,
-3.1499,-0.0014,-5.0035,-93.867,
-3.0499,-0.0014,-5.0034,-94.298,
-2.9498,-0.0014,-5.0033,-94.610,
-2.8499,-0.0014,-5.0033,-94.722,
-2.75,-0.0014,-5.0032,-95.160,
-2.6499,-0.0015,-5.0031,-95.261,
-2.5499,-0.0015,-5.0031,-95.617,
-2.4498,-0.0015,-5.003,-95.931,
-2.3499,-0.0015,-5.0029,-96.457,
-2.25,-0.0015,-5.0029,-96.230,
-2.1499,-0.0015,-5.0028,-96.793,
-2.0499,-0.0015,-5.0028,-97.104,
-1.9498,-0.0016,-5.0027,-97.537,
-1.8499,-0.0016,-5.0026,-97.193,
-1.7499,-0.0016,-5.0026,-97.535,
-1.6499,-0.0016,-5.0025,-97.683,
-1.5499,-0.0016,-5.0024,-98.032,
-1.4499,-0.0016,-5.0024,-98.222,
-1.3499,-0.0016,-5.0023,-98.446,
-1.2498,-0.0017,-5.0022,-98.532,
-1.1499,-0.0017,-5.0022,-98.396,
-1.0499,-0.0017,-5.0021,-98.757,
-0.9498,-0.0017,-5.002,-99.060,
-0.8499,-0.0017,-5.002,-99.409,
-0.7498,-0.0017,-5.0019,-99.177,
-0.6499,-0.0018,-5.0018,-99.491,
-0.5499,-0.0018,-5.0018,-99.602,
-0.4498,-0.0018,-5.0017,-99.461,
-0.3499,-0.0018,-5.0016,-100.000,
-0.25,-0.0018,-5.0016,-99.706,
-0.1499,-0.0018,-5.0015,-99.210,
-0.0499,-0.0018,-5.0014,-99.636,
0.0502,-0.0019,-5.0014,-99.491,
0.1502,-0.0018,-5.0014,-99.037,
0.2501,-0.0018,-5.0014,-99.330,
0.3502,-0.0018,-5.0014,-98.938,
0.4501,-0.0018,-5.0014,-98.987,
0.5502,-0.0018,-5.0014,-99.237,
0.6501,-0.0017,-5.0014,-98.875,
0.7502,-0.0017,-5.0014,-98.804,
0.8501,-0.0017,-5.0014,-98.494,
0.9501,-0.0017,-5.0014,-98.682,
1.0501,-0.0017,-5.0014,-98.325,
1.1501,-0.0017,-5.0014,-98.706,
1.2501,-0.0016,-5.0014,-98.062,
1.3501,-0.0016,-5.0014,-98.055,
1.4501,-0.0016,-5.0014,-98.011,
1.5501,-0.0016,-5.0014,-97.644,
1.6501,-0.0016,-5.0014,-97.626,
1.7501,-0.0015,-5.0014,-97.399,
1.8501,-0.0015,-5.0014,-97.103,
1.9501,-0.0015,-5.0014,-97.100,
2.0501,-0.0015,-5.0014,-96.728,
2.1501,-0.0015,-5.0014,-96.717,
2.2501,-0.0015,-5.0014,-96.513,
2.3501,-0.0014,-5.0014,-96.072,
2.4501,-0.0014,-5.0014,-96.018,
2.5501,-0.0014,-5.0014,-95.809,
2.6501,-0.0014,-5.0014,-95.356,
2.7501,-0.0014,-5.0014,-95.103,
2.85,-0.0013,-5.0014,-94.774,
2.9501,-0.0013,-5.0014,-94.167,
3.0502,-0.0013,-5.0014,-94.294,
3.1501,-0.0013,-5.0014,-93.841,
3.2502,-0.0013,-5.0014,-93.542,
3.3501,-0.0013,-5.0014,-93.484,
3.4502,-0.0012,-5.0014,-92.775,
3.5501,-0.0012,-5.0014,-92.484,
3.6502,-0.0012,-5.0014,-92.103,
3.7501,-0.0012,-5.0014,-91.817,
3.8502,-0.0012,-5.0014,-91.534,
3.9501,-0.0011,-5.0014,-91.208,
4.0502,-0.0011,-5.0014,-90.748,
4.1501,-0.0011,-5.0014,-90.565,
4.2502,-0.0011,-5.0014,-90.192,
4.3501,-0.0011,-5.0014,-89.789,
4.4501,-0.001,-5.0014,-89.716,
4.5501,-0.001,-5.0014,-88.819,
4.6502,-0.001,-5.0014,-88.866,
4.7502,-0.001,-5.0014,-88.377,
4.8502,-0.001,-5.0014,-88.267,
4.9501,-0.001,-5.0014,-87.993,
5.0502,-0.0009,-5.0014,-87.438,
5.1501,-0.0009,-5.0014,-87.124,
5.2502,-0.0009,-5.0014,-86.371,
5.3501,-0.0009,-5.0014,-86.256,
5.4502,-0.0009,-5.0015,-86.008,
5.5501,-0.0008,-5.0015,-85.336,
5.6502,-0.0008,-5.0015,-85.469,
5.7501,-0.0008,-5.0015,-85.071,
5.8502,-0.0008,-5.0015,-84.534,
5.9501,-0.0008,-5.0015,-84.054,
6.0502,-0.0008,-5.0015,-83.672,
6.1501,-0.0007,-5.0015,-83.106,
6.2502,-0.0007,-5.0015,-82.814,
6.3501,-0.0007,-5.0015,-82.543,
6.4501,-0.0007,-5.0015,-82.408,
6.5501,-0.0007,-5.0015,-81.507,
6.6501,-0.0006,-5.0015,-81.151,
6.75,-0.0006,-5.0015,-81.079,
6.8501,-0.0006,-5.0015,-80.599,
6.95,-0.0006,-5.0015,-80.260,
7.0501,-0.0006,-5.0015,-79.898,
7.15,-0.0006,-5.0015,-79.455,
7.2501,-0.0005,-5.0015,-79.288,
7.35,-0.0005,-5.0015,-78.752,
7.4501,-0.0005,-5.0015,-78.090,
7.55,-0.0005,-5.0015,-77.767,
7.6501,-0.0005,-5.0015,-77.269,
7.75,-0.0004,-5.0015,-76.703,
7.8501,-0.0004,-5.0015,-76.573,
7.95,-0.0004,-5.0015,-76.133,
8.0501,-0.0004,-5.0015,-75.598,
8.15,-0.0004,-5.0015,-75.085,
8.2502,-0.0004,-5.0015,-74.778,
8.3502,-0.0003,-5.0015,-74.237,
8.4501,-0.0003,-5.0015,-73.763,
8.5501,-0.0003,-5.0015,-73.294,
8.6501,-0.0003,-5.0015,-72.550,
8.7501,-0.0003,-5.0015,-72.152,
8.8501,-0.0002,-5.0015,-71.520,
8.9501,-0.0002,-5.0015,-71.209,
9.0501,-0.0002,-5.0015,-70.762,
9.1501,-0.0002,-5.0015,-69.742,
9.2501,-0.0002,-5.0015,-68.842,
9.3502,-0.0002,-5.0015,-67.964,
9.4502,-0.0001,-5.0015,-66.595,
9.5501,-0.0002,-5.0014,-64.830,
9.6502,-0.0002,-5.0013,-62.306,
9.7501,-0.0002,-5.0012,-57.252,
9.8501,-0.0002,-5.0011,-49.999,
9.9501,-0.0002,-5.0011,-39.576,
10.0501,-0.0003,-5.001,-27.824,
10.1501,-0.0003,-5.0009,-19.364,
10.2501,-0.0003,-5.0008,-14.766,
10.3501,-0.0003,-5.0007,-12.266,
10.4502,-0.0003,-5.0006,-10.902,
10.5501,-0.0003,-5.0005,-10.061,
10.6502,-0.0004,-5.0005,-9.529,
10.7501,-0.0004,-5.0004,-9.064,
10.8502,-0.0004,-5.0003,-8.765,
10.9501,-0.0004,-5.0002,-8.484,

Checksum:,A3FB158DE1C8AE0B997101AB21CD7EFE9F5FDE2844ACCE9A230B2D6976D9CB93