HEADER
Header Length,87
Export file version,2.0


Export settings:
Normalise,Yes
For TPS,No
Smoothing level,None

Units:
length,[cm]
amperage,[pA]

Project:
Project,A1SL MR SN XMA170891
Project run number,2
Project run note,

Irradiation unit:
Name,VCU MRIdian
Manufacturer,ViewRay
Model,MRIdian
Source-isocentre distance,90,[cm]

Thales:
Control unit UID,00-3B-00-43-4B-56-50-11-20-37-30-53
Electrometer UID,00-4E-00-36-58-4B-50-0D-20-34-34-41
Water phantom UID,4A-B3-52-04-00-00-00-0A

Field detector:
Serial number,A1SL MR
Manufacturer,Standard Imaging
Model,A1SL MR
Bias voltage,-300,[V]

Reference detector:
Serial number,XMC213192
Manufacturer,Standard Imaging
Model,A28MR Ref
Bias voltage,-300,[V]

Zeroing offsets:
Field detector,-0.816,[pA]
Reference detector,-0.873,[pA]

Profile settings:
Measurement mode,Continuous
Creation time,2022-12-24T16:29:35.6343040-05:00
SSD,85,[cm]
Gantry angle,0,[°]
Field size crossline,19.92,[cm]
Field size inline,19.92,[cm]
Beam quality,6,[MV]
Flattening Filter,FFF
Time to wait prior to sampling,0,[s]

Profile:
Profile type,Crossline
Profile status,Completed successfully
Start X,-11,[cm]
Start Y,0,[cm]
Start Z,-5,[cm]
Stop X,11,[cm]
Stop Y,0,[cm]
Stop Z,-5,[cm]
Couch tilt x,0.06,[°]
Couch tilt y,0.01,[°]

Region count,1

Region 1 Start,0,[µm]
Region 1 Stop,220000,[µm]
Step size,1000,[µm]
Speed,1050,[µm/s]
Integration time,953,[ms]

Analysis result:
Analysis method,Max value
Calculated centre,0.027857,[cm]
Calculated field width,19.651741,[cm]
Calculated penumbra left,3.206888,[cm]
Calculated penumbra right,3.236070,[cm]
Calculated symmetry,0.791,[%]
Normalisation factor,0.094170,


MEASUREMENT DATA

X [cm],Y [cm],Z [cm],Normalised dose [%],
-10.9511,0.0012,-5.0029,7.136,
-10.8498,0.0029,-5.0059,7.587,
-10.7498,0.0033,-5.006,8.123,
-10.6499,0.0035,-5.0062,8.674,
-10.55,0.0036,-5.0063,9.516,
-10.4499,0.0038,-5.0065,10.578,
-10.35,0.0039,-5.0067,12.348,
-10.25,0.0041,-5.0068,15.427,
-10.1499,0.0042,-5.007,20.590,
-10.0499,0.0044,-5.0071,28.009,
-9.9498,0.0045,-5.0073,36.999,
-9.8499,0.0047,-5.0075,45.920,
-9.7499,0.0048,-5.0076,53.783,
-9.6498,0.005,-5.0078,59.386,
-9.55,0.0052,-5.0079,63.307,
-9.4499,0.0053,-5.0081,65.656,
-9.3499,0.0054,-5.0082,67.227,
-9.25,0.0055,-5.0083,68.551,
-9.1499,0.0054,-5.0083,69.417,
-9.0498,0.0054,-5.0082,70.144,
-8.9499,0.0053,-5.0082,70.704,
-8.85,0.0052,-5.0081,71.413,
-8.75,0.0051,-5.0081,71.744,
-8.6499,0.005,-5.008,72.581,
-8.5498,0.005,-5.008,72.911,
-8.4498,0.0049,-5.0079,73.290,
-8.3499,0.0048,-5.0079,73.958,
-8.25,0.0047,-5.0078,74.303,
-8.15,0.0047,-5.0078,74.953,
-8.0501,0.0046,-5.0077,75.131,
-7.9501,0.0045,-5.0076,75.790,
-7.85,0.0044,-5.0076,76.017,
-7.7499,0.0044,-5.0075,76.529,
-7.6499,0.0043,-5.0075,77.196,
-7.5498,0.0042,-5.0074,77.696,
-7.4499,0.0041,-5.0074,77.971,
-7.35,0.004,-5.0073,78.279,
-7.2499,0.004,-5.0073,78.859,
-7.1499,0.0039,-5.0072,79.312,
-7.0499,0.0038,-5.0072,79.627,
-6.95,0.0037,-5.0071,80.017,
-6.85,0.0037,-5.0071,80.453,
-6.7499,0.0036,-5.007,80.814,
-6.6499,0.0035,-5.007,81.214,
-6.5499,0.0034,-5.0069,81.988,
-6.45,0.0034,-5.0069,81.885,
-6.35,0.0033,-5.0068,82.476,
-6.2499,0.0032,-5.0068,82.867,
-6.1498,0.0031,-5.0067,83.187,
-6.0499,0.003,-5.0067,83.774,
-5.95,0.003,-5.0066,84.054,
-5.8499,0.0029,-5.0066,84.414,
-5.7499,0.0028,-5.0065,84.696,
-5.6499,0.0027,-5.0065,85.176,
-5.55,0.0027,-5.0064,85.693,
-5.45,0.0026,-5.0063,85.844,
-5.3499,0.0025,-5.0063,86.329,
-5.25,0.0024,-5.0062,86.710,
-5.1501,0.0024,-5.0062,87.150,
-5.05,0.0023,-5.0061,87.666,
-4.95,0.0022,-5.0061,87.814,
-4.85,0.0021,-5.006,88.043,
-4.7499,0.002,-5.006,88.549,
-4.6498,0.002,-5.0059,89.174,
-4.5499,0.0019,-5.0059,89.427,
-4.4498,0.0018,-5.0058,89.624,
-4.3499,0.0017,-5.0058,90.161,
-4.25,0.0017,-5.0057,90.534,
-4.15,0.0016,-5.0057,90.961,
-4.0499,0.0015,-5.0056,91.120,
-3.9498,0.0014,-5.0056,91.486,
-3.8499,0.0014,-5.0055,91.883,
-3.75,0.0013,-5.0055,91.948,
-3.6499,0.0012,-5.0054,92.287,
-3.5498,0.0011,-5.0054,92.855,
-3.4499,0.001,-5.0053,93.049,
-3.35,0.001,-5.0053,93.254,
-3.25,0.0009,-5.0052,93.659,
-3.1499,0.0008,-5.0052,93.994,
-3.0498,0.0007,-5.0051,94.142,
-2.9499,0.0007,-5.005,94.602,
-2.85,0.0006,-5.005,94.855,
-2.7499,0.0005,-5.0049,95.089,
-2.6499,0.0004,-5.0049,95.651,
-2.5498,0.0004,-5.0048,95.823,
-2.4499,0.0003,-5.0048,96.060,
-2.35,0.0002,-5.0047,96.190,
-2.2499,0.0001,-5.0047,96.538,
-2.1499,0,-5.0046,96.991,
-2.0499,0,-5.0046,97.273,
-1.95,-0.0001,-5.0045,97.311,
-1.85,-0.0002,-5.0045,97.695,
-1.7499,-0.0003,-5.0044,97.785,
-1.6498,-0.0003,-5.0044,98.533,
-1.5499,-0.0004,-5.0043,98.217,
-1.45,-0.0005,-5.0043,98.441,
-1.3499,-0.0006,-5.0042,98.675,
-1.2499,-0.0006,-5.0042,98.709,
-1.1499,-0.0007,-5.0041,99.126,
-1.05,-0.0008,-5.0041,99.288,
-0.95,-0.0009,-5.004,99.186,
-0.8499,-0.001,-5.004,99.437,
-0.7498,-0.001,-5.0039,99.593,
-0.6499,-0.0011,-5.0039,99.850,
-0.55,-0.0012,-5.0038,99.625,
-0.45,-0.0013,-5.0037,99.858,
-0.3499,-0.0013,-5.0037,99.600,
-0.2498,-0.0014,-5.0036,100.000,
-0.1499,-0.0015,-5.0036,99.502,
-0.05,-0.0016,-5.0035,99.511,
0.05,-0.0016,-5.0035,99.637,
0.15,-0.0017,-5.0035,99.540,
0.2501,-0.0016,-5.0034,99.275,
0.3502,-0.0016,-5.0034,99.254,
0.4501,-0.0016,-5.0034,99.411,
0.55,-0.0015,-5.0034,99.333,
0.6501,-0.0015,-5.0034,99.128,
0.7502,-0.0015,-5.0034,99.101,
0.8502,-0.0015,-5.0034,99.142,
0.9501,-0.0014,-5.0034,98.873,
1.0501,-0.0014,-5.0034,98.680,
1.1501,-0.0014,-5.0033,98.431,
1.25,-0.0013,-5.0033,98.596,
1.35,-0.0013,-5.0033,98.208,
1.4501,-0.0013,-5.0033,97.987,
1.5501,-0.0012,-5.0033,97.864,
1.65,-0.0012,-5.0033,97.749,
1.7501,-0.0012,-5.0033,97.738,
1.85,-0.0011,-5.0033,97.281,
1.9499,-0.0011,-5.0033,97.354,
2.05,-0.0011,-5.0032,97.009,
2.1501,-0.0011,-5.0032,96.639,
2.2502,-0.001,-5.0032,96.527,
2.3501,-0.001,-5.0032,96.290,
2.45,-0.001,-5.0032,95.867,
2.5501,-0.0009,-5.0032,95.764,
2.6502,-0.0009,-5.0032,95.521,
2.7501,-0.0009,-5.0032,95.288,
2.85,-0.0008,-5.0031,95.141,
2.9501,-0.0008,-5.0031,94.498,
3.0501,-0.0008,-5.0031,94.239,
3.15,-0.0008,-5.0031,93.749,
3.2501,-0.0007,-5.0031,93.673,
3.3501,-0.0007,-5.0031,93.188,
3.4501,-0.0007,-5.0031,92.867,
3.55,-0.0006,-5.0031,92.658,
3.65,-0.0006,-5.0031,92.197,
3.7501,-0.0006,-5.003,92.113,
3.8501,-0.0005,-5.003,91.498,
3.95,-0.0005,-5.003,91.261,
4.05,-0.0005,-5.003,91.121,
4.1501,-0.0004,-5.003,90.779,
4.2501,-0.0004,-5.003,90.176,
4.35,-0.0004,-5.003,90.050,
4.4501,-0.0004,-5.003,89.713,
4.5502,-0.0003,-5.0029,89.330,
4.6501,-0.0003,-5.0029,88.698,
4.7501,-0.0003,-5.0029,88.432,
4.8502,-0.0002,-5.0029,88.332,
4.9501,-0.0002,-5.0029,87.898,
5.05,-0.0002,-5.0029,87.582,
5.1501,-0.0001,-5.0029,87.016,
5.2501,-0.0001,-5.0029,86.590,
5.35,-0.0001,-5.0029,86.366,
5.4501,-0.0001,-5.0028,86.058,
5.5501,0,-5.0028,85.554,
5.6501,0,-5.0028,85.082,
5.75,0,-5.0028,84.776,
5.8501,0.0001,-5.0028,84.432,
5.9501,0.0001,-5.0028,84.241,
6.0501,0.0001,-5.0028,83.483,
6.15,0.0002,-5.0028,83.419,
6.2501,0.0002,-5.0028,82.961,
6.3501,0.0002,-5.0027,82.407,
6.4501,0.0003,-5.0027,82.158,
6.55,0.0003,-5.0027,81.880,
6.6501,0.0003,-5.0027,81.290,
6.7502,0.0003,-5.0027,80.788,
6.8501,0.0004,-5.0027,80.680,
6.95,0.0004,-5.0027,80.091,
7.0501,0.0004,-5.0027,79.713,
7.1502,0.0005,-5.0026,79.305,
7.2501,0.0005,-5.0026,78.756,
7.35,0.0005,-5.0026,78.627,
7.4501,0.0006,-5.0026,78.171,
7.5502,0.0006,-5.0026,77.588,
7.6502,0.0006,-5.0026,77.057,
7.7501,0.0006,-5.0026,76.677,
7.8501,0.0007,-5.0026,76.578,
7.9501,0.0007,-5.0026,75.996,
8.05,0.0007,-5.0025,75.405,
8.1501,0.0008,-5.0025,74.927,
8.2501,0.0008,-5.0025,74.721,
8.3501,0.0008,-5.0025,74.054,
8.45,0.0009,-5.0025,73.650,
8.5501,0.0009,-5.0025,73.225,
8.6502,0.0009,-5.0025,72.746,
8.7501,0.0009,-5.0025,72.166,
8.85,0.001,-5.0024,71.558,
8.9501,0.001,-5.0024,71.060,
9.0502,0.001,-5.0024,70.475,
9.1501,0.0011,-5.0024,69.718,
9.25,0.0011,-5.0024,69.008,
9.3501,0.0011,-5.0024,68.177,
9.4502,0.0012,-5.0023,66.547,
9.5501,0.0011,-5.0022,64.790,
9.6502,0.001,-5.002,61.594,
9.7503,0.0009,-5.0019,57.192,
9.8503,0.0008,-5.0017,50.293,
9.9502,0.0007,-5.0016,41.760,
10.0502,0.0006,-5.0015,32.423,
10.1501,0.0005,-5.0013,23.871,
10.2501,0.0005,-5.0012,17.419,
10.3501,0.0004,-5.001,13.121,
10.45,0.0003,-5.0009,10.725,
10.5501,0.0002,-5.0007,9.350,
10.6502,0.0001,-5.0006,8.574,
10.7502,0,-5.0004,8.072,
10.8502,-0.0001,-5.0003,7.680,
10.9501,-0.0002,-5.0001,7.337,

Checksum:,094D747E78FC49033A327F174DE56B592CA4578A1AD25275E77DD8B44498B0A7