HEADER
Header Length,87
Export file version,2.0


Export settings:
Normalise,Yes
For TPS,No
Smoothing level,None

Units:
length,[cm]
amperage,[pA]

Project:
Project,Razor Nano SN 18081
Project run number,1
Project run note,

Irradiation unit:
Name,VCU MRIdian
Manufacturer,ViewRay
Model,MRIdian
Source-isocentre distance,90,[cm]

Thales:
Control unit UID,00-3B-00-43-4B-56-50-11-20-37-30-53
Electrometer UID,00-4E-00-36-58-4B-50-0D-20-34-34-41
Water phantom UID,4A-B3-52-04-00-00-00-0A

Field detector:
Serial number,18081
Manufacturer,IBA
Model,Razor Nano
Bias voltage,300,[V]

Reference detector:
Serial number,XMC213192
Manufacturer,Standard Imaging
Model,A28MR Ref
Bias voltage,-300,[V]

Zeroing offsets:
Field detector,-0.83,[pA]
Reference detector,-0.894,[pA]

Profile settings:
Measurement mode,Continuous
Creation time,2022-12-26T18:53:21.6906595-05:00
SSD,85,[cm]
Gantry angle,0,[°]
Field size crossline,24.07,[cm]
Field size inline,24.07,[cm]
Beam quality,6,[MV]
Flattening Filter,FFF
Time to wait prior to sampling,0,[s]

Profile:
Profile type,Inline
Profile status,Completed successfully
Start X,0,[cm]
Start Y,-13.5,[cm]
Start Z,-5,[cm]
Stop X,0,[cm]
Stop Y,13.5,[cm]
Stop Z,-5,[cm]
Couch tilt x,0.08,[°]
Couch tilt y,0.01,[°]

Region count,1

Region 1 Start,0,[µm]
Region 1 Stop,270000,[µm]
Step size,1000,[µm]
Speed,1050,[µm/s]
Integration time,953,[ms]

Analysis result:
Analysis method,Max value
Calculated centre,-0.077818,[cm]
Calculated field width,23.724009,[cm]
Calculated penumbra left,4.561908,[cm]
Calculated penumbra right,6.301067,[cm]
Calculated symmetry,6.629,[%]
Normalisation factor,1.487317,


MEASUREMENT DATA

X [cm],Y [cm],Z [cm],Normalised dose [%],
-0.0026,-13.45,-5.0065,-5.762,
-0.001,-13.3497,-5.013,-6.002,
0.0007,-13.2497,-5.0129,-6.104,
0.0042,-13.1497,-5.0128,-6.486,
0.007,-13.0497,-5.0127,-6.764,
0.0075,-12.9497,-5.0126,-7.131,
0.0077,-12.8497,-5.0125,-7.444,
0.0076,-12.7497,-5.0125,-7.932,
0.0077,-12.6497,-5.0124,-8.569,
0.0078,-12.5497,-5.0123,-9.629,
0.0075,-12.4497,-5.0122,-11.072,
0.0073,-12.3497,-5.0121,-13.822,
0.0073,-12.2497,-5.012,-19.337,
0.007,-12.1497,-5.012,-28.717,
0.0067,-12.0497,-5.0119,-39.892,
0.0066,-11.9497,-5.0118,-49.383,
0.0066,-11.8497,-5.0117,-55.633,
0.0067,-11.7497,-5.0116,-59.795,
0.0068,-11.6496,-5.0115,-62.137,
0.0068,-11.5496,-5.0115,-63.459,
0.0068,-11.4496,-5.0114,-64.202,
0.0069,-11.3497,-5.0113,-64.650,
0.0069,-11.25,-5.0112,-64.958,
0.0068,-11.15,-5.0111,-65.330,
0.0067,-11.05,-5.0111,-65.682,
0.0067,-10.95,-5.011,-66.137,
0.0066,-10.85,-5.0109,-66.773,
0.0065,-10.75,-5.0108,-67.497,
0.0064,-10.65,-5.0107,-68.176,
0.0064,-10.55,-5.0106,-68.643,
0.0063,-10.45,-5.0106,-69.462,
0.0062,-10.35,-5.0105,-69.594,
0.006,-10.25,-5.0104,-70.182,
0.0058,-10.15,-5.0103,-70.513,
0.0057,-10.05,-5.0102,-71.195,
0.0057,-9.95,-5.0101,-71.482,
0.0054,-9.85,-5.0101,-72.053,
0.0051,-9.75,-5.01,-72.507,
0.005,-9.6499,-5.0099,-72.900,
0.005,-9.5499,-5.0098,-72.963,
0.0049,-9.4499,-5.0097,-73.391,
0.0048,-9.3499,-5.0096,-73.625,
0.0048,-9.2499,-5.0096,-73.992,
0.0047,-9.1498,-5.0095,-74.564,
0.0046,-9.0498,-5.0094,-74.976,
0.0046,-8.9498,-5.0093,-75.539,
0.0045,-8.8498,-5.0092,-75.760,
0.0042,-8.7498,-5.0092,-75.961,
0.0041,-8.6498,-5.0091,-76.216,
0.004,-8.5498,-5.009,-76.907,
0.0039,-8.4498,-5.0089,-76.909,
0.0036,-8.3498,-5.0088,-77.423,
0.0035,-8.2498,-5.0087,-77.911,
0.0034,-8.1498,-5.0087,-78.100,
0.0031,-8.0498,-5.0086,-78.485,
0.003,-7.9498,-5.0085,-78.848,
0.0029,-7.8498,-5.0084,-79.520,
0.0028,-7.7498,-5.0083,-79.670,
0.0028,-7.6498,-5.0082,-80.148,
0.0027,-7.5497,-5.0082,-80.596,
0.0026,-7.4497,-5.0081,-80.786,
0.0026,-7.3497,-5.008,-81.220,
0.0025,-7.2497,-5.0079,-81.466,
0.0024,-7.1497,-5.0078,-81.821,
0.0023,-7.0497,-5.0077,-81.962,
0.0023,-6.9497,-5.0077,-82.179,
0.002,-6.8496,-5.0076,-83.033,
0.0018,-6.7496,-5.0075,-83.125,
0.0019,-6.6496,-5.0074,-83.571,
0.002,-6.5496,-5.0074,-83.908,
0.002,-6.4497,-5.0074,-84.357,
0.0019,-6.3498,-5.0074,-84.615,
0.0019,-6.2496,-5.0074,-85.136,
0.0019,-6.1497,-5.0075,-85.414,
0.0018,-6.0498,-5.0075,-86.075,
0.0018,-5.9497,-5.0075,-86.248,
0.0018,-5.8498,-5.0075,-86.671,
0.0017,-5.7499,-5.0076,-86.926,
0.0015,-5.6497,-5.0076,-87.185,
0.0014,-5.5498,-5.0076,-87.687,
0.0013,-5.4499,-5.0076,-88.462,
0.0013,-5.3497,-5.0077,-88.755,
0.0013,-5.2496,-5.0077,-88.721,
0.001,-5.1497,-5.0077,-89.094,
0.0009,-5.0498,-5.0078,-89.387,
0.0009,-4.9496,-5.0078,-89.777,
0.0009,-4.8497,-5.0078,-90.512,
0.0008,-4.7498,-5.0078,-90.165,
0.0008,-4.6496,-5.0079,-90.755,
0.0006,-4.5497,-5.0079,-90.680,
0.0004,-4.4499,-5.0079,-91.390,
0.0004,-4.3497,-5.0079,-91.753,
0.0004,-4.2498,-5.008,-92.163,
0.0001,-4.1499,-5.008,-92.445,
-0.0001,-4.0497,-5.008,-92.772,
-0.0001,-3.9496,-5.008,-92.920,
-0.0002,-3.8497,-5.0081,-93.290,
-0.0002,-3.7498,-5.0081,-93.430,
0,-3.6496,-5.0081,-93.958,
0.0001,-3.5497,-5.0082,-94.151,
0.0003,-3.4498,-5.0082,-94.213,
0.0004,-3.3496,-5.0082,-95.074,
0.0005,-3.2497,-5.0082,-94.986,
0.0006,-3.1499,-5.0083,-95.483,
0.0007,-3.0497,-5.0083,-95.286,
0.0008,-2.9498,-5.0083,-95.941,
0.0008,-2.8499,-5.0083,-96.552,
0.0008,-2.7497,-5.0084,-96.768,
0.0007,-2.6498,-5.0084,-96.850,
0.0007,-2.55,-5.0084,-97.306,
0.0007,-2.4498,-5.0084,-97.326,
0.0008,-2.3496,-5.0085,-97.526,
0.0009,-2.2497,-5.0085,-97.613,
0.0009,-2.1498,-5.0085,-97.964,
0.0008,-2.0496,-5.0085,-98.221,
0.0008,-1.9497,-5.0086,-98.277,
0.0008,-1.8498,-5.0086,-98.528,
0.0007,-1.7496,-5.0086,-98.745,
0.0007,-1.6497,-5.0087,-98.898,
0.0007,-1.5498,-5.0087,-98.819,
0.0006,-1.4496,-5.0087,-99.310,
0.0006,-1.3497,-5.0087,-99.114,
0.0006,-1.2499,-5.0088,-99.289,
0.0007,-1.1497,-5.0088,-99.390,
0.0008,-1.0498,-5.0088,-99.030,
0.0008,-0.9499,-5.0088,-99.895,
0.0007,-0.8497,-5.0089,-99.721,
0.0007,-0.7498,-5.0089,-99.703,
0.0007,-0.6499,-5.0089,-99.757,
0.0006,-0.5498,-5.0089,-99.646,
0.0006,-0.4496,-5.009,-99.525,
0.0006,-0.3497,-5.009,-99.478,
0.0005,-0.2498,-5.009,-100.000,
0.0005,-0.1496,-5.0091,-99.446,
0.0005,-0.0497,-5.0091,-99.820,
0.0004,0.0502,-5.0091,-99.474,
0.0004,0.1503,-5.0091,-99.401,
0.0004,0.2502,-5.0092,-99.091,
0.0003,0.3501,-5.0092,-98.590,
0.0003,0.4503,-5.0092,-98.973,
0.0003,0.5502,-5.0092,-98.740,
0.0002,0.6501,-5.0093,-98.706,
0,0.7502,-5.0093,-98.244,
-0.0001,0.8504,-5.0093,-98.095,
-0.0002,0.9503,-5.0093,-98.132,
-0.0002,1.0502,-5.0094,-97.870,
-0.0002,1.1504,-5.0094,-97.787,
-0.0003,1.2503,-5.0094,-97.797,
-0.0003,1.3502,-5.0094,-96.901,
-0.0003,1.4503,-5.0095,-96.884,
-0.0003,1.5502,-5.0095,-96.679,
-0.0004,1.6501,-5.0095,-96.323,
-0.0004,1.7503,-5.0096,-96.155,
-0.0004,1.8502,-5.0096,-96.109,
-0.0005,1.9501,-5.0096,-95.616,
-0.0005,2.0503,-5.0096,-95.240,
-0.0005,2.1504,-5.0097,-94.861,
-0.0006,2.2503,-5.0097,-94.531,
-0.0006,2.3502,-5.0097,-94.048,
-0.0006,2.4504,-5.0097,-93.968,
-0.0005,2.5503,-5.0098,-93.392,
-0.0004,2.6502,-5.0098,-93.358,
-0.0004,2.7504,-5.0098,-92.908,
-0.0005,2.8505,-5.0098,-92.550,
-0.0005,2.9504,-5.0098,-92.220,
-0.0005,3.0505,-5.0097,-92.146,
-0.0005,3.1505,-5.0096,-91.272,
-0.0005,3.2505,-5.0095,-90.833,
-0.0005,3.3503,-5.0095,-90.647,
-0.0007,3.45,-5.0094,-90.608,
-0.0008,3.55,-5.0093,-89.852,
-0.0008,3.6501,-5.0092,-89.350,
-0.0008,3.7502,-5.0091,-89.039,
-0.0008,3.8502,-5.009,-88.716,
-0.0006,3.9502,-5.009,-88.309,
-0.0005,4.0503,-5.0089,-87.724,
-0.0005,4.1503,-5.0088,-87.589,
-0.0005,4.2503,-5.0087,-87.132,
-0.0007,4.3503,-5.0086,-86.873,
-0.0008,4.4504,-5.0085,-86.417,
-0.0008,4.5504,-5.0084,-85.861,
-0.001,4.6504,-5.0084,-85.330,
-0.0011,4.7505,-5.0083,-85.175,
-0.0011,4.8505,-5.0082,-84.323,
-0.0011,4.9503,-5.0081,-84.289,
-0.0009,5.05,-5.008,-83.911,
-0.0008,5.15,-5.0079,-83.348,
-0.0008,5.25,-5.0079,-82.960,
-0.0006,5.3501,-5.0078,-82.492,
-0.0005,5.4501,-5.0077,-82.057,
-0.0005,5.5501,-5.0076,-81.401,
-0.0005,5.6502,-5.0075,-80.787,
-0.0005,5.7503,-5.0074,-80.635,
-0.0005,5.8503,-5.0074,-80.193,
-0.0005,5.9503,-5.0073,-79.690,
-0.0005,6.0504,-5.0072,-79.342,
-0.0005,6.1504,-5.0071,-79.232,
-0.0003,6.2504,-5.007,-78.366,
-0.0002,6.3505,-5.0069,-78.053,
-0.0002,6.4505,-5.0069,-77.727,
-0.0002,6.5505,-5.0068,-77.157,
-0.0002,6.6503,-5.0067,-76.903,
-0.0002,6.75,-5.0066,-76.113,
-0.0002,6.85,-5.0065,-75.919,
-0.0004,6.95,-5.0064,-75.413,
-0.0005,7.0501,-5.0064,-75.139,
-0.0005,7.1501,-5.0063,-74.937,
-0.0005,7.2501,-5.0062,-74.498,
-0.0005,7.3502,-5.0061,-74.084,
-0.0005,7.4502,-5.006,-73.818,
-0.0005,7.5503,-5.0059,-73.460,
-0.0005,7.6504,-5.0059,-72.891,
-0.0005,7.7504,-5.0058,-72.745,
-0.0005,7.8505,-5.0057,-72.033,
-0.0005,7.9503,-5.0056,-71.580,
-0.0005,8.05,-5.0055,-70.954,
-0.0005,8.15,-5.0054,-70.554,
-0.0005,8.25,-5.0054,-70.046,
-0.0005,8.3501,-5.0053,-69.912,
-0.0005,8.4501,-5.0052,-69.176,
-0.0003,8.5501,-5.0051,-68.727,
-0.0002,8.6502,-5.005,-68.382,
-0.0002,8.7502,-5.0049,-67.935,
-0.0002,8.8502,-5.0048,-67.593,
-0.0002,8.9502,-5.0048,-67.228,
-0.0002,9.0503,-5.0047,-66.518,
-0.0002,9.1503,-5.0046,-66.354,
-0.0002,9.2503,-5.0045,-65.243,
-0.0002,9.3504,-5.0044,-65.305,
-0.0002,9.4504,-5.0043,-64.805,
-0.0002,9.5504,-5.0043,-64.516,
-0.0002,9.6505,-5.0042,-63.851,
-0.0002,9.7503,-5.0041,-63.629,
-0.0002,9.85,-5.004,-63.157,
-0.0002,9.9501,-5.0039,-62.855,
-0.0002,10.0501,-5.0038,-62.434,
-0.0002,10.1501,-5.0038,-61.726,
-0.0002,10.2501,-5.0037,-61.232,
-0.0002,10.3502,-5.0036,-60.978,
-0.0002,10.4502,-5.0035,-60.371,
-0.0004,10.5502,-5.0034,-60.032,
-0.0005,10.6503,-5.0033,-59.666,
-0.0005,10.7503,-5.0033,-58.888,
-0.0005,10.8503,-5.0032,-58.515,
-0.0005,10.9504,-5.0031,-57.727,
-0.0005,11.0504,-5.003,-57.235,
-0.0007,11.1504,-5.0029,-56.568,
-0.0008,11.2504,-5.0028,-56.255,
-0.0008,11.3505,-5.0028,-55.221,
-0.0008,11.4505,-5.0027,-54.491,
-0.0008,11.5503,-5.0026,-53.595,
-0.0008,11.65,-5.0025,-52.531,
-0.0008,11.75,-5.0024,-50.971,
-0.0008,11.8501,-5.0023,-48.127,
-0.0008,11.9502,-5.0023,-43.604,
-0.0006,12.0502,-5.0022,-35.304,
-0.0005,12.1502,-5.0021,-24.222,
-0.0005,12.2502,-5.002,-13.558,
-0.0005,12.3502,-5.0018,-6.200,
-0.0004,12.4502,-5.0017,-2.067,
-0.0003,12.5503,-5.0015,0.111,
-0.0003,12.6503,-5.0014,1.953,
-0.0002,12.7503,-5.0012,2.847,
-0.0001,12.8504,-5.001,3.522,
0,12.9504,-5.0009,3.981,
0,13.0505,-5.0007,4.260,
-0.0001,13.1505,-5.0006,4.305,
0,13.2503,-5.0004,4.619,
0,13.35,-5.0003,4.863,
0.0001,13.4494,-5.0001,5.280,

Checksum:,67EE59A62FA7CD2EEEA041996A29CA2881F89C17CA78B4B3CF30C74D71CC061C